File Dati SpectraSuite
++++++++++++++++++++++++++++++++++++
Data: Tue Dec 05 16:55:00 CET 2017
Utente: GRUPPO 01
Spettro Scuro Presente: No
Spettro di Riferimento Presente: No
Numero di Componenti Spettri Campionati: 1
Spettrometri: USB2G34644
Tempo di integrazione (usec): 500000 (USB2G34644)
Media Spettri: 1 (USB2G34644)
Appiattimento Boxcar: 0 (USB2G34644)
Correggi Oscurità Elettronica: No (USB2G34644)
Strobo/Lampada Abilitato: No (USB2G34644)
Correct for Detector Non-linearity: No (USB2G34644)
Correggi Stray Light: No (USB2G34644)
Numero di Pixel nello Spettro Elaborato: 651
>>>>>Comincia Dati dello Spettro Elaborati<<<<<
350,00	123,93
351,00	129,04
352,00	136,83
353,00	124,30
354,00	133,15
355,00	126,53
356,00	128,06
357,00	135,77
358,00	121,99
359,00	133,12
360,00	128,92
361,00	126,15
362,00	128,43
363,00	123,39
364,00	126,96
365,00	129,00
366,00	128,90
367,00	127,31
368,00	127,97
369,00	132,13
370,00	132,66
371,00	129,99
372,00	132,36
373,00	131,91
374,00	127,53
375,00	138,03
376,00	131,76
377,00	133,01
378,00	133,58
379,00	203,74
380,00	135,85
381,00	129,89
382,00	127,26
383,00	131,03
384,00	131,56
385,00	127,30
386,00	130,69
387,00	133,25
388,00	129,02
389,00	128,15
390,00	138,95
391,00	131,04
392,00	125,96
393,00	132,79
394,00	125,48
395,00	127,08
396,00	123,75
397,00	129,25
398,00	130,12
399,00	130,78
400,00	130,31
401,00	131,05
402,00	126,54
403,00	125,69
404,00	151,24
405,00	132,56
406,00	126,45
407,00	130,19
408,00	128,38
409,00	131,35
410,00	129,26
411,00	130,43
412,00	141,81
413,00	124,87
414,00	128,38
415,00	130,07
416,00	130,73
417,00	132,95
418,00	128,69
419,00	125,45
420,00	123,01
421,00	133,73
422,00	130,20
423,00	132,44
424,00	133,87
425,00	131,05
426,00	131,15
427,00	135,89
428,00	129,24
429,00	129,05
430,00	125,96
431,00	126,28
432,00	132,28
433,00	128,85
434,00	130,65
435,00	151,69
436,00	129,17
437,00	123,13
438,00	129,69
439,00	130,91
440,00	127,03
441,00	126,93
442,00	128,62
443,00	134,68
444,00	149,09
445,00	129,80
446,00	127,07
447,00	129,06
448,00	126,94
449,00	138,54
450,00	131,40
451,00	127,68
452,00	130,95
453,00	131,91
454,00	119,86
455,00	136,80
456,00	134,10
457,00	129,40
458,00	139,41
459,00	128,36
460,00	126,84
461,00	126,00
462,00	140,98
463,00	129,55
464,00	129,97
465,00	131,73
466,00	136,47
467,00	133,90
468,00	131,97
469,00	135,42
470,00	123,74
471,00	133,08
472,00	127,01
473,00	126,91
474,00	128,72
475,00	128,14
476,00	128,02
477,00	127,87
478,00	132,59
479,00	131,38
480,00	132,34
481,00	125,79
482,00	132,15
483,00	124,30
484,00	126,83
485,00	132,25
486,00	125,24
487,00	128,05
488,00	124,59
489,00	127,76
490,00	129,45
491,00	130,65
492,00	135,51
493,00	126,51
494,00	129,15
495,00	123,07
496,00	128,88
497,00	126,20
498,00	146,52
499,00	127,02
500,00	145,22
501,00	127,53
502,00	128,63
503,00	129,96
504,00	130,14
505,00	128,52
506,00	126,62
507,00	144,85
508,00	135,25
509,00	135,27
510,00	130,71
511,00	132,92
512,00	126,97
513,00	127,69
514,00	125,59
515,00	126,06
516,00	130,09
517,00	130,53
518,00	126,10
519,00	129,49
520,00	134,42
521,00	126,86
522,00	135,51
523,00	143,22
524,00	278,91
525,00	126,03
526,00	128,74
527,00	134,82
528,00	129,04
529,00	123,69
530,00	128,20
531,00	125,29
532,00	128,17
533,00	125,85
534,00	129,86
535,00	128,16
536,00	126,98
537,00	125,51
538,00	125,99
539,00	127,95
540,00	125,29
541,00	138,48
542,00	132,08
543,00	126,42
544,00	127,51
545,00	129,33
546,00	123,85
547,00	124,13
548,00	132,25
549,00	129,82
550,00	125,69
551,00	126,38
552,00	128,13
553,00	137,51
554,00	131,82
555,00	126,67
556,00	126,10
557,00	125,92
558,00	129,10
559,00	128,87
560,00	127,04
561,00	129,87
562,00	125,90
563,00	123,69
564,00	133,98
565,00	127,22
566,00	142,85
567,00	130,07
568,00	127,16
569,00	130,33
570,00	126,13
571,00	123,49
572,00	132,36
573,00	134,04
574,00	131,66
575,00	129,03
576,00	126,48
577,00	128,65
578,00	130,06
579,00	122,75
580,00	127,21
581,00	136,06
582,00	125,84
583,00	132,08
584,00	126,27
585,00	132,04
586,00	137,70
587,00	126,99
588,00	128,18
589,00	136,31
590,00	129,22
591,00	128,67
592,00	123,39
593,00	130,15
594,00	127,84
595,00	128,95
596,00	123,78
597,00	122,53
598,00	129,80
599,00	136,55
600,00	128,07
601,00	128,42
602,00	133,50
603,00	131,72
604,00	128,31
605,00	125,96
606,00	129,61
607,00	126,04
608,00	135,39
609,00	130,21
610,00	129,96
611,00	125,70
612,00	130,76
613,00	131,47
614,00	129,62
615,00	126,77
616,00	125,33
617,00	128,84
618,00	133,90
619,00	133,82
620,00	144,71
621,00	122,02
622,00	123,32
623,00	128,37
624,00	126,35
625,00	129,01
626,00	130,00
627,00	127,51
628,00	135,06
629,00	121,01
630,00	129,08
631,00	126,03
632,00	142,14
633,00	127,81
634,00	129,29
635,00	124,92
636,00	131,29
637,00	135,80
638,00	126,97
639,00	132,05
640,00	123,79
641,00	128,16
642,00	132,56
643,00	129,98
644,00	125,12
645,00	126,48
646,00	125,89
647,00	124,00
648,00	132,08
649,00	132,17
650,00	126,16
651,00	125,31
652,00	131,62
653,00	131,13
654,00	127,77
655,00	128,31
656,00	126,25
657,00	138,08
658,00	126,90
659,00	126,11
660,00	129,81
661,00	129,59
662,00	125,52
663,00	127,56
664,00	128,24
665,00	122,39
666,00	127,46
667,00	125,05
668,00	128,22
669,00	125,56
670,00	129,58
671,00	127,91
672,00	129,96
673,00	126,36
674,00	127,42
675,00	128,47
676,00	128,80
677,00	126,57
678,00	123,86
679,00	128,15
680,00	123,52
681,00	128,50
682,00	132,88
683,00	133,34
684,00	132,08
685,00	127,99
686,00	129,43
687,00	123,19
688,00	130,03
689,00	124,00
690,00	125,63
691,00	127,27
692,00	129,10
693,00	129,81
694,00	127,91
695,00	128,95
696,00	127,35
697,00	125,66
698,00	128,37
699,00	134,70
700,00	126,89
701,00	122,58
702,00	130,62
703,00	126,55
704,00	126,88
705,00	125,66
706,00	125,10
707,00	125,85
708,00	126,28
709,00	130,65
710,00	127,74
711,00	126,89
712,00	124,80
713,00	128,65
714,00	126,64
715,00	122,76
716,00	126,31
717,00	125,03
718,00	127,25
719,00	126,43
720,00	128,09
721,00	135,83
722,00	129,67
723,00	128,89
724,00	129,00
725,00	131,83
726,00	124,90
727,00	131,89
728,00	137,92
729,00	129,03
730,00	137,66
731,00	128,87
732,00	128,95
733,00	130,70
734,00	124,01
735,00	127,29
736,00	136,26
737,00	131,04
738,00	130,77
739,00	129,45
740,00	126,32
741,00	123,78
742,00	131,18
743,00	127,65
744,00	133,70
745,00	127,93
746,00	125,05
747,00	123,87
748,00	127,11
749,00	125,72
750,00	131,97
751,00	122,69
752,00	126,35
753,00	126,89
754,00	125,15
755,00	126,48
756,00	127,94
757,00	122,92
758,00	125,35
759,00	125,96
760,00	131,97
761,00	128,66
762,00	129,92
763,00	129,98
764,00	124,99
765,00	123,01
766,00	129,01
767,00	128,63
768,00	130,75
769,00	128,22
770,00	125,82
771,00	126,72
772,00	132,34
773,00	126,56
774,00	126,36
775,00	129,23
776,00	127,80
777,00	126,46
778,00	121,02
779,00	126,64
780,00	126,98
781,00	134,37
782,00	128,72
783,00	124,47
784,00	124,65
785,00	134,79
786,00	125,79
787,00	129,37
788,00	125,16
789,00	135,64
790,00	129,44
791,00	128,00
792,00	124,13
793,00	119,53
794,00	124,13
795,00	128,03
796,00	139,36
797,00	126,37
798,00	128,27
799,00	238,53
800,00	129,91
801,00	133,06
802,00	122,98
803,00	129,84
804,00	128,58
805,00	124,94
806,00	127,08
807,00	130,99
808,00	131,41
809,00	128,91
810,00	129,00
811,00	127,78
812,00	133,72
813,00	123,10
814,00	124,62
815,00	121,99
816,00	127,65
817,00	130,32
818,00	123,04
819,00	127,23
820,00	148,94
821,00	134,05
822,00	128,22
823,00	127,83
824,00	121,27
825,00	123,13
826,00	133,70
827,00	126,30
828,00	127,94
829,00	129,28
830,00	128,08
831,00	130,14
832,00	124,13
833,00	128,03
834,00	130,97
835,00	123,60
836,00	124,93
837,00	120,95
838,00	126,82
839,00	127,75
840,00	135,06
841,00	131,19
842,00	123,63
843,00	123,95
844,00	128,25
845,00	128,91
846,00	128,93
847,00	127,61
848,00	130,44
849,00	127,23
850,00	127,32
851,00	131,22
852,00	129,27
853,00	128,47
854,00	129,35
855,00	126,67
856,00	128,84
857,00	125,82
858,00	123,98
859,00	132,16
860,00	127,83
861,00	141,07
862,00	125,41
863,00	141,33
864,00	130,22
865,00	125,82
866,00	124,02
867,00	125,22
868,00	132,02
869,00	121,79
870,00	131,98
871,00	125,52
872,00	125,03
873,00	132,87
874,00	138,00
875,00	125,79
876,00	134,48
877,00	124,49
878,00	126,30
879,00	128,95
880,00	129,23
881,00	139,75
882,00	125,73
883,00	125,81
884,00	128,04
885,00	125,62
886,00	124,50
887,00	125,49
888,00	136,56
889,00	125,39
890,00	125,02
891,00	131,67
892,00	124,05
893,00	136,78
894,00	124,81
895,00	128,51
896,00	125,86
897,00	124,38
898,00	130,08
899,00	126,35
900,00	125,20
901,00	127,39
902,00	129,22
903,00	123,18
904,00	132,79
905,00	127,07
906,00	133,94
907,00	128,62
908,00	133,18
909,00	128,10
910,00	125,59
911,00	128,17
912,00	126,89
913,00	129,12
914,00	127,29
915,00	125,25
916,00	129,87
917,00	122,89
918,00	126,63
919,00	125,88
920,00	124,61
921,00	132,26
922,00	125,83
923,00	131,28
924,00	140,10
925,00	123,01
926,00	130,85
927,00	125,78
928,00	127,63
929,00	125,47
930,00	125,92
931,00	128,09
932,00	138,47
933,00	129,38
934,00	128,74
935,00	124,39
936,00	128,50
937,00	129,25
938,00	124,33
939,00	121,90
940,00	126,76
941,00	118,79
942,00	126,34
943,00	125,95
944,00	132,46
945,00	126,33
946,00	125,54
947,00	124,03
948,00	129,21
949,00	133,83
950,00	125,60
951,00	142,16
952,00	128,99
953,00	128,53
954,00	130,14
955,00	131,40
956,00	132,17
957,00	127,93
958,00	128,64
959,00	125,08
960,00	152,28
961,00	133,05
962,00	127,97
963,00	123,72
964,00	127,27
965,00	126,62
966,00	125,11
967,00	124,60
968,00	120,18
969,00	129,27
970,00	125,04
971,00	126,09
972,00	127,55
973,00	129,00
974,00	126,70
975,00	131,04
976,00	126,42
977,00	124,42
978,00	138,92
979,00	127,96
980,00	125,33
981,00	124,04
982,00	135,67
983,00	142,45
984,00	124,44
985,00	124,41
986,00	122,91
987,00	130,29
988,00	132,94
989,00	124,80
990,00	128,77
991,00	133,71
992,00	125,12
993,00	127,06
994,00	128,05
995,00	123,52
996,00	125,75
997,00	123,51
998,00	127,57
999,00	124,76
1000,00	129,56
>>>>>Finisci Dati dello Spettro Elaborati<<<<<
