File Dati SpectraSuite
++++++++++++++++++++++++++++++++++++
Data: Tue Dec 05 17:01:32 CET 2017
Utente: GRUPPO 01
Spettro Scuro Presente: No
Spettro di Riferimento Presente: No
Numero di Componenti Spettri Campionati: 1
Spettrometri: USB2G34644
Tempo di integrazione (usec): 9000 (USB2G34644)
Media Spettri: 1 (USB2G34644)
Appiattimento Boxcar: 0 (USB2G34644)
Correggi Oscurità Elettronica: No (USB2G34644)
Strobo/Lampada Abilitato: No (USB2G34644)
Correct for Detector Non-linearity: No (USB2G34644)
Correggi Stray Light: No (USB2G34644)
Numero di Pixel nello Spettro Elaborato: 651
>>>>>Comincia Dati dello Spettro Elaborati<<<<<
350,00	123,52
351,00	119,99
352,00	118,12
353,00	120,11
354,00	122,05
355,00	121,96
356,00	124,45
357,00	118,46
358,00	119,96
359,00	120,19
360,00	123,81
361,00	123,54
362,00	122,20
363,00	122,01
364,00	119,80
365,00	125,06
366,00	122,51
367,00	118,84
368,00	122,00
369,00	123,42
370,00	122,20
371,00	125,93
372,00	119,18
373,00	123,78
374,00	124,92
375,00	121,96
376,00	123,93
377,00	124,99
378,00	124,91
379,00	126,53
380,00	127,14
381,00	124,28
382,00	121,76
383,00	122,69
384,00	123,39
385,00	126,06
386,00	121,95
387,00	122,32
388,00	126,28
389,00	126,04
390,00	125,93
391,00	122,95
392,00	129,19
393,00	121,77
394,00	126,63
395,00	126,88
396,00	125,61
397,00	122,98
398,00	125,91
399,00	125,82
400,00	123,71
401,00	126,02
402,00	126,54
403,00	125,56
404,00	130,08
405,00	135,12
406,00	139,81
407,00	138,57
408,00	134,14
409,00	139,55
410,00	138,12
411,00	138,11
412,00	139,29
413,00	145,44
414,00	134,20
415,00	130,49
416,00	127,29
417,00	127,86
418,00	127,40
419,00	125,30
420,00	123,01
421,00	125,06
422,00	128,09
423,00	127,85
424,00	123,36
425,00	127,05
426,00	125,42
427,00	124,40
428,00	126,67
429,00	124,90
430,00	124,05
431,00	126,51
432,00	127,61
433,00	125,90
434,00	125,94
435,00	123,19
436,00	128,40
437,00	126,10
438,00	125,36
439,00	124,44
440,00	128,02
441,00	126,05
442,00	123,55
443,00	125,93
444,00	122,86
445,00	123,72
446,00	127,42
447,00	125,14
448,00	124,05
449,00	126,11
450,00	125,64
451,00	128,94
452,00	124,90
453,00	125,94
454,00	124,00
455,00	127,17
456,00	126,18
457,00	124,42
458,00	122,59
459,00	123,53
460,00	125,66
461,00	123,99
462,00	128,97
463,00	127,65
464,00	125,66
465,00	124,91
466,00	128,36
467,00	125,25
468,00	130,04
469,00	126,04
470,00	124,05
471,00	124,63
472,00	125,00
473,00	124,96
474,00	124,49
475,00	119,37
476,00	122,88
477,00	126,44
478,00	129,20
479,00	126,62
480,00	125,01
481,00	124,64
482,00	125,78
483,00	127,84
484,00	128,20
485,00	126,75
486,00	130,18
487,00	131,91
488,00	129,28
489,00	130,50
490,00	129,09
491,00	131,27
492,00	135,10
493,00	137,35
494,00	136,55
495,00	134,98
496,00	125,97
497,00	127,92
498,00	129,17
499,00	128,85
500,00	128,68
501,00	130,16
502,00	129,28
503,00	138,68
504,00	133,76
505,00	128,39
506,00	131,68
507,00	137,59
508,00	142,06
509,00	141,67
510,00	145,20
511,00	146,03
512,00	156,89
513,00	160,44
514,00	173,09
515,00	186,48
516,00	209,44
517,00	228,68
518,00	263,44
519,00	321,38
520,00	342,47
521,00	315,41
522,00	325,70
523,00	384,23
524,00	449,94
525,00	478,85
526,00	497,79
527,00	531,43
528,00	616,86
529,00	716,76
530,00	687,50
531,00	564,27
532,00	435,17
533,00	362,18
534,00	334,73
535,00	335,52
536,00	379,30
537,00	459,41
538,00	595,28
539,00	893,56
540,00	1849,23
541,00	2386,55
542,00	2134,38
543,00	1695,76
544,00	1410,93
545,00	924,83
546,00	786,29
547,00	879,38
548,00	1253,34
549,00	2395,71
550,00	3633,86
551,00	3698,18
552,00	2449,93
553,00	1401,79
554,00	826,19
555,00	580,36
556,00	446,87
557,00	376,68
558,00	341,77
559,00	297,34
560,00	299,70
561,00	265,12
562,00	229,24
563,00	206,97
564,00	179,91
565,00	167,73
566,00	161,49
567,00	149,70
568,00	141,81
569,00	138,74
570,00	134,49
571,00	131,71
572,00	132,36
573,00	131,48
574,00	126,78
575,00	128,05
576,00	124,01
577,00	127,00
578,00	131,50
579,00	130,23
580,00	129,02
581,00	129,00
582,00	123,75
583,00	124,68
584,00	122,59
585,00	126,71
586,00	125,36
587,00	121,01
588,00	125,37
589,00	122,80
590,00	124,32
591,00	129,20
592,00	126,71
593,00	125,93
594,00	121,84
595,00	124,56
596,00	125,24
597,00	123,62
598,00	123,27
599,00	124,92
600,00	125,88
601,00	122,00
602,00	126,46
603,00	125,91
604,00	124,15
605,00	126,80
606,00	126,07
607,00	126,86
608,00	123,46
609,00	127,15
610,00	127,80
611,00	125,09
612,00	126,78
613,00	127,68
614,00	127,01
615,00	125,61
616,00	126,67
617,00	121,35
618,00	127,35
619,00	126,57
620,00	126,15
621,00	126,01
622,00	128,08
623,00	125,67
624,00	124,02
625,00	124,35
626,00	125,70
627,00	127,32
628,00	127,17
629,00	126,00
630,00	127,04
631,00	126,42
632,00	126,97
633,00	130,19
634,00	136,03
635,00	139,28
636,00	141,99
637,00	144,96
638,00	151,09
639,00	155,79
640,00	163,95
641,00	169,12
642,00	179,75
643,00	194,85
644,00	205,24
645,00	237,04
646,00	295,62
647,00	375,96
648,00	476,73
649,00	538,56
650,00	547,72
651,00	572,15
652,00	610,99
653,00	597,28
654,00	661,54
655,00	660,14
656,00	566,72
657,00	487,53
658,00	446,90
659,00	453,00
660,00	477,78
661,00	535,34
662,00	656,19
663,00	741,94
664,00	810,09
665,00	912,78
666,00	1057,00
667,00	1176,14
668,00	1206,08
669,00	1158,21
670,00	1020,42
671,00	763,63
672,00	557,45
673,00	430,07
674,00	342,75
675,00	287,54
676,00	249,80
677,00	228,05
678,00	217,45
679,00	215,69
680,00	212,96
681,00	198,55
682,00	191,60
683,00	175,92
684,00	167,16
685,00	160,17
686,00	151,94
687,00	147,87
688,00	141,00
689,00	144,99
690,00	141,92
691,00	137,86
692,00	138,11
693,00	132,66
694,00	132,30
695,00	133,09
696,00	130,81
697,00	129,38
698,00	128,04
699,00	130,73
700,00	130,37
701,00	123,82
702,00	126,00
703,00	123,45
704,00	124,43
705,00	122,38
706,00	125,91
707,00	126,19
708,00	126,79
709,00	125,36
710,00	126,25
711,00	126,47
712,00	124,05
713,00	125,53
714,00	122,93
715,00	122,81
716,00	124,00
717,00	124,40
718,00	127,16
719,00	124,03
720,00	124,85
721,00	124,02
722,00	124,06
723,00	125,95
724,00	124,01
725,00	122,82
726,00	125,98
727,00	124,02
728,00	125,97
729,00	124,05
730,00	123,90
731,00	128,74
732,00	125,82
733,00	123,16
734,00	124,06
735,00	123,09
736,00	118,69
737,00	122,24
738,00	122,28
739,00	124,82
740,00	125,30
741,00	123,43
742,00	126,01
743,00	123,78
744,00	124,62
745,00	124,98
746,00	124,50
747,00	120,76
748,00	123,10
749,00	125,60
750,00	123,37
751,00	124,81
752,00	125,88
753,00	122,33
754,00	124,96
755,00	123,97
756,00	123,17
757,00	126,56
758,00	123,61
759,00	125,29
760,00	123,81
761,00	125,30
762,00	121,12
763,00	121,01
764,00	125,00
765,00	123,04
766,00	120,85
767,00	125,20
768,00	126,42
769,00	123,98
770,00	125,96
771,00	122,16
772,00	122,42
773,00	121,06
774,00	125,53
775,00	124,21
776,00	127,16
777,00	124,81
778,00	123,39
779,00	124,78
780,00	124,99
781,00	128,03
782,00	131,18
783,00	130,01
784,00	131,04
785,00	126,58
786,00	131,99
787,00	127,86
788,00	135,72
789,00	139,90
790,00	148,38
791,00	160,84
792,00	163,01
793,00	164,11
794,00	158,41
795,00	157,68
796,00	169,50
797,00	191,12
798,00	188,68
799,00	196,76
800,00	195,70
801,00	176,16
802,00	172,77
803,00	170,40
804,00	159,25
805,00	151,35
806,00	143,94
807,00	139,86
808,00	154,94
809,00	162,08
810,00	169,02
811,00	173,53
812,00	175,12
813,00	167,76
814,00	161,91
815,00	161,11
816,00	160,95
817,00	160,67
818,00	174,95
819,00	175,19
820,00	176,31
821,00	164,97
822,00	162,21
823,00	155,00
824,00	149,25
825,00	146,02
826,00	145,64
827,00	150,26
828,00	158,35
829,00	165,85
830,00	187,09
831,00	195,03
832,00	215,93
833,00	212,42
834,00	186,15
835,00	170,32
836,00	158,69
837,00	166,15
838,00	151,82
839,00	151,81
840,00	158,33
841,00	155,63
842,00	142,81
843,00	140,01
844,00	140,94
845,00	137,05
846,00	132,46
847,00	136,78
848,00	145,74
849,00	153,17
850,00	195,70
851,00	191,92
852,00	165,15
853,00	168,27
854,00	176,91
855,00	154,99
856,00	144,14
857,00	133,34
858,00	130,09
859,00	127,72
860,00	122,96
861,00	126,92
862,00	126,93
863,00	125,87
864,00	136,20
865,00	126,03
866,00	125,38
867,00	123,23
868,00	119,27
869,00	126,33
870,00	126,16
871,00	126,05
872,00	125,01
873,00	125,21
874,00	126,02
875,00	122,37
876,00	120,38
877,00	122,33
878,00	123,48
879,00	125,64
880,00	122,89
881,00	122,25
882,00	122,07
883,00	125,06
884,00	124,70
885,00	122,21
886,00	121,82
887,00	128,13
888,00	123,39
889,00	121,65
890,00	123,17
891,00	126,55
892,00	121,93
893,00	123,60
894,00	123,70
895,00	125,16
896,00	121,87
897,00	125,86
898,00	122,78
899,00	123,42
900,00	122,17
901,00	122,57
902,00	126,00
903,00	122,83
904,00	122,62
905,00	122,48
906,00	123,08
907,00	121,87
908,00	124,69
909,00	125,58
910,00	124,28
911,00	122,88
912,00	121,48
913,00	125,10
914,00	122,19
915,00	126,20
916,00	127,94
917,00	125,21
918,00	123,07
919,00	121,95
920,00	124,79
921,00	120,72
922,00	125,90
923,00	126,62
924,00	123,89
925,00	121,91
926,00	126,86
927,00	127,65
928,00	127,88
929,00	128,18
930,00	126,18
931,00	121,47
932,00	134,49
933,00	131,55
934,00	133,34
935,00	132,58
936,00	131,92
937,00	132,78
938,00	136,97
939,00	138,02
940,00	136,78
941,00	142,13
942,00	139,95
943,00	144,93
944,00	145,43
945,00	145,57
946,00	146,42
947,00	149,78
948,00	146,19
949,00	149,85
950,00	149,43
951,00	150,44
952,00	144,00
953,00	149,40
954,00	153,64
955,00	156,32
956,00	165,08
957,00	164,30
958,00	172,60
959,00	176,63
960,00	187,74
961,00	190,67
962,00	194,41
963,00	203,60
964,00	225,92
965,00	238,99
966,00	253,35
967,00	308,55
968,00	420,97
969,00	615,59
970,00	767,00
971,00	840,01
972,00	874,00
973,00	888,97
974,00	849,42
975,00	775,86
976,00	725,52
977,00	670,95
978,00	648,22
979,00	646,96
980,00	616,03
981,00	588,62
982,00	512,29
983,00	460,01
984,00	369,73
985,00	315,62
986,00	271,83
987,00	238,74
988,00	224,79
989,00	217,46
990,00	209,58
991,00	204,39
992,00	209,21
993,00	207,91
994,00	216,17
995,00	228,51
996,00	253,63
997,00	267,90
998,00	287,72
999,00	315,90
1000,00	326,75
>>>>>Finisci Dati dello Spettro Elaborati<<<<<
